VAMAS Surface Chemical Analysis Standard Data Transfer Format 1988 May 4
Specs
PHOIBOS HSA3500 DLD 150 R7[HWType 30:101] DLD
ppxcf1
?
1
Created by SpecsLab Prodigy, Version 4.91.3-r105809 
NORM
REGULAR
1
0
0
0
0
0
1
Wide3
Transmission cyclic
2022
6
1
9
47
32
0
9
File = C:/Users/ppxcf1/Desktop/Data/XPS/01-Jun-2022/Experiment 2022-06-01_CuMnAs (1).sle
Group = Transmission cyclic
First of group = 1
Spectrum ID = 7
Analyzer lens = SmallArea:1.5kV
Analyzer slit = 4:7x20c\B:open
Scan mode = FixedAnalyzerTransmission
Kinetic energy start = 386.61
OrdinateRange = [-22.000000, 22.000000]
XPS
Al
1486.61
0
0
0
54.500000
180.000000
FAT
100
1
4.14
0
0
0
0
0
Wide3

-1
kinetic energy
eV
386.61
1
2
counts
d
Transmission
d
pulse counting
0.1
1
0
0
0
0
0
2212
0.614107
11021.2
1
1
4698.74
1
4812.22
1
4861.79
1
4850.24
1
4853.16
1
4777.48
1
4682.78
1
4555.6
1
4653.41
1
4676.53
1
4867.98
1
4696.32
1
4562.35
1
4479.62
1
4561.76
1
4701.32
1
4712.32
1
4662.9
1
4642.21
1
4632.98
1
4766.91
1
4666.24
1
4661.61
1
4710.88
1
4638.17
1
4822.8
1
4780.11
1
4747.52
1
4881.81
1
4868.21
1
4741.52
1
4861.34
1
4823.87
1
4768.38
1
4787.94
1
4871.48
1
4824.39
1
4895.1
1
4915.33
1
4848.63
1
4951.86
1
5012.72
1
5004.7
1
5011.27
1
4907.46
1
5102.69
1
5063.88
1
4981.42
1
5057.4
1
5076.34
1
5062.67
1
5079.21
1
5069.82
1
5206.86
1
5233.06
1
5144.88
1
5143.84
1
5157.66
1
5134.07
1
5247.38
1
5240.63
1
5292.59
1
5316.32
1
5284.83
1
5304.25
1
5483.35
1
5295.68
1
5420.67
1
5359.16
1
5503.42
1
5389.15
1
5381.76
1
5348.59
1
5343.56
1
5441.52
1
5585.9
1
5690.42
1
5627.86
1
5649.68
1
5460.26
1
5669.99
1
5719.57
1
5738.09
1
5679.86
1
5768.55
1
5763.39
1
5694.86
1
5646.91
1
5686.89
1
5649.85
1
5820.52
1
5920.5
1
5944.83
1
5833.45
1
5907.74
1
5885.3
1
6028.37
1
6022.74
1
5942.74
1
5983.61
1
5981.52
1
6049.66
1
6242.56
1
6122.39
1
6086.95
1
6267.72
1
6223.58
1
6297.63
1
6269.59
1
6426.67
1
6529.4
1
6461.81
1
6462.56
1
6294.67
1
6257.92
1
6439.26
1
6265.31
1
6321.2
1
6421.67
1
6536.26
1
6620.38
1
6477.41
1
6398.21
1
6658.12
1
6551.29
1
6724.69
1
6676.27
1
6704.38
1
6703.23
1
6767
1
6917.45
1
6741.73
1
6725.04
1
6804.14
1
6891.75
1
6885.92
1
6735.54
1
6689.38
1
6597.88
1
6573.06
1
6761.76
1
6773.28
1
6851.46
1
6981.71
1
7284.43
1
7877.97
1
8950.36
1
9107.44
1
7979.12
1
7307.75
1
6966.41
1
6892.46
1
6782.4
1
6561.29
1
6445.64
1
6313.42
1
6352.54
1
6174.65
1
5909.71
1
5821.25
1
5781.44
1
5666.94
1
5905.78
1
6112.56
1
6752.79
1
8287.2
1
11021.2
1
10223.2
1
7425.5
1
5816.75
1
5318.55
1
5367.63
1
5368.36
1
5314.39
1
5362.59
1
5281.75
1
5309.8
1
5284.87
1
5390.68
1
5310.2
1
5386.71
1
5394.63
1
5230.44
1
5354.14
1
5385.75
1
5339.58
1
5363.09
1
5460.49
1
5435.74
1
5327.84
1
5475.4
1
5475.1
1
5633.99
1
5587.19
1
5481.83
1
5613.53
1
5739.95
1
5690.41
1
5757.32
1
5802.38
1
5763.22
1
5871.74
1
5822.55
1
5717.27
1
5716.65
1
5511.88
1
5397.89
1
5301.7
1
5414.68
1
5329.63
1
5328.97
1
5355.25
1
5185.44
1
5261.72
1
5260.48
1
5272.67
1
5280.01
1
5294.97
1
5273.87
1
5377.92
1
5374.78
1
5429.96
1
5414.65
1
5381.59
1
5418.15
1
5360.7
1
5544.74
1
5454.74
1
5440.94
1
5343.03
1
5450.03
1
5477.74
1
5430.94
1
5562.51
1
5608.09
1
5557.38
1
5446.43
1
5499.95
1
5562.53
1
5625.75
1
5527.96
1
5567.53
1
5629.89
1
5491.23
1
5676.45
1
5777.91
1
5789.58
1
5827.49
1
5904.69
1
5892.98
1
5838.13
1
5930.43
1
5731.16
1
5717.03
1
5655.66
1
5741.12
1
5700.03
1
5764.56
1
5627.67
1
5790.67
1
5597.63
1
5603.21
1
5784.99
1
5789.44
1
5738.78
1
5709.28
1
5806.71
1
5700.92
1
5696.37
1
5785.46
1
5796.53
1
5862.74
1
5715.6
1
5781.72
1
5856.2
1
5878.34
1
5935.93
1
5766.77
1
5869.67
1
5842.41
1
5894.67
1
5880.14
1
6015.92
1
6120.41
1
5998.21
1
5952.29
1
5988.69
1
6036.45
1
6000.05
1
5962.11
1
6065.74
1
5998.35
1
6043.07
1
6082.86
1
6179.66
1
6139.48
1
6175.59
1
6185.92
1
6246.2
1
6258.58
1
6250.21
1
6142.01
1
6319.45
1
6343.27
1
6274.81
1
6295.28
1
6234.99
1
6289.2
1
6366.77
1
6296.99
1
6307.29
1
6395.51
1
6331.28
1
6334.66
1
6377.9
1
6395.18
1
6435.51
1
6489.55
1
6648.46
1
6606.82
1
6316.08
1
6296.39
1
6608.93
1
6690.01
1
6694.42
1
6552.72
1
6697.15
1
6666.88
1
6618.6
1
6761.03
1
6873.62
1
6870.52
1
6764.18
1
6805.15
1
6785.55
1
6519.14
1
6437.7
1
6434.09
1
6583.35
1
6614.39
1
6648.22
1
6551.08
1
6416.32
1
6469.05
1
6569.74
1
6572.53
1
6535.42
1
6545.86
1
6624.18
1
6731.87
1
6604.77
1
6662.8
1
6718.43
1
6760.14
1
6725.21
1
6855.98
1
6882.97
1
6855.75
1
6826.96
1
6826.35
1
6942.74
1
6786.37
1
6907.61
1
6918.83
1
7042.11
1
6865.92
1
6941.85
1
7035
1
6921.36
1
7003.13
1
7125.24
1
6989.51
1
6894.32
1
7041.78
1
6994.34
1
7049.54
1
7093.91
1
7214.46
1
7141.18
1
7180.38
1
7052.81
1
7221.41
1
7035.01
1
7153.58
1
7150.99
1
7133.52
1
7206.4
1
7179.06
1
7209.44
1
6977.48
1
7107.29
1
6989.54
1
6986.4
1
6925.97
1
6935.4
1
6887.54
1
6785.25
1
6850.57
1
6823.08
1
6853.44
1
6909.66
1
6949.82
1
6979.47
1
6839.3
1
6980.73
1
6963
1
6937.61
1
6861.67
1
6912.05
1
7155.49
1
7052.66
1
6948.08
1
6911.94
1
7092.58
1
7106.85
1
6980.07
1
7069.23
1
7186.31
1
7056.83
1
7221.04
1
7365.49
1
7381.41
1
7271.98
1
7398.87
1
7289.89
1
7329.85
1
7380.85
1
7501.21
1
7639.61
1
7547.21
1
7545.86
1
7462.83
1
7725.79
1
7645.43
1
7679.82
1
7784.15
1
7786.37
1
7700.63
1
7942.3
1
7885.97
1
7901.98
1
8159.25
1
8202.37
1
8038.06
1
8117.12
1
8093.48
1
8147.26
1
8220.29
1
8376.76
1
8445.2
1
8317.61
1
8374.92
1
8376.09
1
8283.4
1
8148.77
1
8015.08
1
8104.07
1
8101.88
1
8282.85
1
8382.45
1
8432.45
1
7606.95
1
6989.14
1
6640.89
1
6219.05
1
6128.94
1
6253.55
1
6169.72
1
6216.6
1
6304.92
1
6405.21
1
6220.84
1
6138.26
1
6242.69
1
6084.43
1
6083.36
1
6119.37
1
6115.17
1
6017.29
1
6220.66
1
6304.46
1
6138.59
1
6133.76
1
6062.7
1
6209.64
1
6233.24
1
6149.42
1
6311.49
1
6138.78
1
6162.83
1
6178.67
1
6243.17
1
6190.22
1
6418.64
1
6365.15
1
6259.67
1
6231.21
1
6182.76
1
6110.49
1
6323.14
1
6386.08
1
6355.08
1
6412.39
1
6441.2
1
6485.55
1
6501.8
1
6528.62
1
6664.99
1
6559.79
1
6651.45
1
6714.67
1
6669.03
1
6598.99
1
6549.28
1
6586.16
1
6491.62
1
6464.18
1
6483.51
1
6421.4
1
6451.06
1
6370.54
1
6399.5
1
6474.38
1
6476.54
1
6543.42
1
6774.27
1
6944.15
1
7097.28
1
7239.76
1
7341.98
1
7688.38
1
8018.3
1
7415.63
1
6790.99
1
6479.51
1
6007.47
1
5883.41
1
5809.69
1
5694.22
1
5687.01
1
5659.69
1
5680.52
1
5620.86
1
5474.07
1
5604.44
1
5572.66
1
5749.97
1
5570.68
1
5625.9
1
5763.9
1
5856.74
1
5781.45
1
5670.51
1
5597.64
1
5448.56
1
5503.89
1
5519.75
1
5388.53
1
5454.22
1
5363.29
1
5414.86
1
5602.56
1
5636.06
1
5491.06
1
5603.08
1
5723.83
1
5773.81
1
5744.18
1
5616.68
1
5742.24
1
5475.92
1
5429.82
1
5453.26
1
5444.62
1
5389.27
1
5470.69
1
5582.24
1
5625.7
1
5749.86
1
5633.42
1
5713.08
1
5853.9
1
5888.92
1
5913.2
1
5964.9
1
5870.15
1
5778.74
1
5454.02
1
5479.51
1
5420.02
1
5397.31
1
5406.14
1
5572.69
1
5669.05
1
5657.74
1
5613.06
1
5568.69
1
5485.46
1
5497.73
1
5380.16
1
5260.63
1
5308.79
1
5259.34
1
5265.32
1
5293.04
1
5189.58
1
5069.93
1
5160.85
1
5222.29
1
5326.25
1
5262.57
1
5456.16
1
5461.26
1
5331.98
1
5370.17
1
5176.22
1
5183.39
1
5393.91
1
5369.58
1
5329.89
1
5355.12
1
5381.67
1
5342.08
1
5308.88
1
5236.21
1
5228.95
1
5409.26
1
5413.38
1
5382.32
1
5292.39
1
5324.08
1
5498.57
1
5532.32
1
5531.49
1
5539.34
1
5605.1
1
5422.55
1
5526.21
1
5383.39
1
5458.02
1
5592.1
1
5576.26
1
5518.4
1
5585.38
1
5542.74
1
5406.94
1
5268.14
1
5212.85
1
5025.74
1
5003.02
1
4963.04
1
4878.56
1
5015.14
1
4938.18
1
4990.33
1
4989.39
1
4995.2
1
5045.3
1
5243.05
1
5231.87
1
5261.58
1
5379.7
1
5441.16
1
5449.75
1
5460.47
1
5346.45
1
5271.33
1
5343.77
1
5267.22
1
5178.27
1
5120.58
1
5034.77
1
5023.87
1
5048.51
1
5208.64
1
5248.54
1
5177.81
1
5405.27
1
5723.98
1
6318.5
1
6078.02
1
5442.41
1
5129.43
1
4962.56
1
4754.71
1
4274.65
1
4259.75
1
4274.99
1
4169.06
1
4183.95
1
4202.99
1
4138.08
1
4049.37
1
4089.41
1
4064.2
1
3957.64
1
4132.46
1
4113.68
1
3974.25
1
4079.37
1
4030.43
1
4159.93
1
4164.77
1
4143.48
1
4267.06
1
4631.32
1
4840.2
1
4825.15
1
4578.29
1
4404.77
1
4408.18
1
4118.1
1
4126.73
1
4080.31
1
3917.83
1
3897.76
1
3990.21
1
4035.18
1
3923
1
3928.91
1
4016.98
1
4096.04
1
3959.41
1
3989.55
1
4144.62
1
4336.43
1
4442.15
1
4668.47
1
4867.21
1
4869.28
1
4866.54
1
4593.31
1
4258.83
1
4081.92
1
3947.54
1
3939.27
1
3979.99
1
3948.47
1
4183.44
1
4347.96
1
4441.01
1
4400.12
1
4264.81
1
3920.47
1
3877.1
1
3580.22
1
3505.38
1
3383.14
1
3367.51
1
3244.59
1
3260.86
1
3261.87
1
3247.79
1
3200.82
1
3222.05
1
3282.34
1
3200.32
1
3170.77
1
3260.45
1
3258.49
1
3236.55
1
3391.7
1
3543.3
1
3681.3
1
3865.53
1
4035.65
1
3880.35
1
3699.05
1
3434.49
1
3419.72
1
3238.77
1
3241.89
1
3199.95
1
3314.51
1
3217.94
1
3190.45
1
3207.32
1
3114.61
1
3038.51
1
2923.44
1
3050.77
1
2990.36
1
2985.29
1
2973.58
1
3019.69
1
2894.06
1
3021.46
1
3152.43
1
3080.16
1
3055.8
1
3080.47
1
3082.82
1
3085.44
1
3126.14
1
3097.04
1
3105.14
1
3090.36
1
3116.51
1
3066.74
1
3173
1
3128.65
1
3180.25
1
3217.57
1
3218.73
1
3145.35
1
3186.19
1
3205.76
1
3260.41
1
3145.42
1
3290.09
1
3393.4
1
3400.44
1
3347.92
1
3493.46
1
3667.5
1
3751.67
1
3744.26
1
3684.62
1
3747.56
1
3838.74
1
3832.55
1
3804.72
1
3888.7
1
3827.24
1
3916.65
1
3755.8
1
3722.72
1
3674.09
1
3620.95
1
3663.16
1
3612.76
1
3648.5
1
3780.72
1
3996.42
1
4057.64
1
4370.56
1
4824.35
1
5575.52
1
7015.16
1
7588.43
1
6620.92
1
5174.53
1
4529.72
1
4435
1
3922.4
1
3155.62
1
2620.63
1
2566.04
1
2525.87
1
2343.54
1
2287.84
1
2388.9
1
2432.46
1
2398.34
1
2457.2
1
2420.02
1
2489.01
1
2503.93
1
2481.79
1
2500.84
1
2416.12
1
2430.49
1
2435.74
1
2348.16
1
2401.52
1
2387.23
1
2352.78
1
2425.84
1
2555.17
1
2521.37
1
2592.13
1
2755.65
1
3125.09
1
3654.92
1
4168.45
1
4157.87
1
3625.47
1
3063.09
1
2655.41
1
2429.38
1
2149.84
1
1983.89
1
1868.87
1
1748.8
1
1754.48
1
1791.33
1
1810.57
1
1808.8
1
1850.07
1
1827.32
1
1815.12
1
1918.46
1
1984.04
1
2051.12
1
2140.76
1
2229.8
1
2204.18
1
2053.9
1
1771.29
1
1659.51
1
1700.37
1
1632.23
1
1640.46
1
1597.71
1
1587
1
1556.2
1
1605.23
1
1546.21
1
1587.1
1
1715.68
1
1665.63
1
1670.7
1
1905.3
1
1973.83
1
1898.5
1
1725.01
1
1630.77
1
1627.35
1
1681.84
1
1695.48
1
1776.95
1
1725.61
1
1726.38
1
1698.71
1
1668.5
1
1746.41
1
1732.85
1
1681
1
1658.11
1
1696.76
1
1691.84
1
1715.88
1
1754.55
1
1709.56
1
1782.37
1
1782.16
1
1889.55
1
1937.12
1
2005.46
1
2080.38
1
2092.74
1
1967.59
1
1844.52
1
1770
1
1689.9
1
1809.94
1
1784.95
1
1706.42
1
1721.79
1
1742.94
1
1792.81
1
1804.57
1
1997.04
1
2214.26
1
2441.24
1
2484.66
1
2352.1
1
2364.58
1
2525.59
1
2686.9
1
2552.47
1
2055.88
1
1642.88
1
1453.97
1
1280.03
1
1268.14
1
1202.14
1
1278.09
1
1311.53
1
1436.77
1
1680.06
1
1621.01
1
1428.06
1
1393.94
1
1343.79
1
1492.14
1
1554.01
1
1529.18
1
1400.11
1
1236.61
1
1147.07
1
1065.93
1
1030.58
1
992.215
1
1046.39
1
1001.27
1
985.711
1
1033.61
1
1058.66
1
1126.09
1
1219.34
1
1398.83
1
1449.04
1
1497.38
1
1554.54
1
1591.86
1
1385.01
1
1189.82
1
1079.25
1
946.93
1
964.912
1
936.16
1
916.432
1
973.932
1
899.018
1
963.259
1
895.918
1
907.73
1
918.05
1
942.538
1
918.011
1
893.647
1
879.546
1
841.422
1
830.206
1
891.496
1
911.07
1
952.751
1
974.517
1
1042.68
1
1106.99
1
1233.58
1
1413.65
1
1480.06
1
1510.43
1
1277.42
1
995.824
1
805.086
1
735.991
1
734.036
1
703.048
1
718.167
1
687.216
1
718.722
1
732.942
1
715.453
1
683.354
1
674.791
1
650.315
1
699.74
1
677.111
1
664.915
1
648.068
1
653.196
1
664.449
1
656.185
1
678.707
1
696.059
1
719.814
1
728.467
1
754.133
1
809.416
1
852.766
1
772.459
1
664.163
1
636.597
1
759.758
1
1213.68
1
1674.87
1
1435.7
1
788.342
1
467.569
1
376.798
1
409.695
1
377.885
1
357.742
1
345.534
1
302.685
1
293.728
1
256.072
1
248.398
1
222.07
1
262.508
1
250.642
1
246.908
1
268.895
1
307.639
1
312.035
1
355.228
1
582.777
1
855.643
1
708.958
1
353.169
1
204.833
1
179.245
1
195.238
1
166.918
1
185.51
1
185.845
1
167.774
1
168.639
1
163.896
1
239.43
1
329.459
1
415.83
1
564.874
1
567.811
1
421.416
1
240.33
1
145.762
1
51.4519
1
10.4534
1
7.7016
1
1.63935
1
1.24618
1
0.614107
1
end of experiment
