VAMAS Surface Chemical Analysis Standard Data Transfer Format 1988 May 4
Specs
PHOIBOS HSA3500 DLD 150 R7[HWType 30:101] DLD
ppxcf1
?
1
Created by SpecsLab Prodigy, Version 4.91.3-r105809 
NORM
REGULAR
1
0
0
0
0
0
1
Wide1
Transmission cyclic
2022
6
1
8
40
8
0
9
File = C:/Users/ppxcf1/Desktop/Data/XPS/01-Jun-2022/Experiment 2022-06-01_CuMnAs (1).sle
Group = Transmission cyclic
First of group = 1
Spectrum ID = 3
Analyzer lens = SmallArea:1.5kV
Analyzer slit = 4:7x20c\B:open
Scan mode = FixedAnalyzerTransmission
Kinetic energy start = 386.61
OrdinateRange = [-22.000000, 22.000000]
XPS
Al
1486.61
0
0
0
54.500000
180.000000
FAT
100
1
4.14
0
0
0
0
0
Wide1

-1
kinetic energy
eV
386.61
1
2
counts
d
Transmission
d
pulse counting
0.1
1
0
0
0
0
0
2212
0
15601.1
1
1
3415.52
1
3351.79
1
3436.78
1
3419.19
1
3442.84
1
3451.22
1
3524.3
1
3511.45
1
3492.03
1
3520.88
1
3592.59
1
3571.36
1
3563.82
1
3598.79
1
3520.56
1
3542.98
1
3433.47
1
3484.06
1
3536.67
1
3615.93
1
3522.29
1
3682.43
1
3667.92
1
3749.47
1
3723.75
1
3598.17
1
3589.34
1
3728.81
1
3690.22
1
3784.13
1
3733.44
1
3733.69
1
3652.76
1
3720.34
1
3821.08
1
3749.83
1
3900.35
1
3681.24
1
3755.69
1
3744.68
1
3741.33
1
3845.49
1
3866.61
1
3742.13
1
3769.22
1
3854.63
1
3842.22
1
3781.95
1
3857.58
1
3892.11
1
3901.33
1
3892.19
1
3942.36
1
3902.77
1
3923.78
1
3831.1
1
3934.74
1
3808.99
1
3935.94
1
3987.16
1
4088.07
1
3998.05
1
4031.81
1
4040.74
1
4072.2
1
4037.47
1
4000.91
1
4039.3
1
4062.1
1
4111.44
1
4184.59
1
4034.13
1
4068.43
1
4136.33
1
4170.22
1
4172.96
1
4173.01
1
4109.39
1
4160.94
1
4173.41
1
4139.37
1
4208.36
1
4228.45
1
4215.16
1
4299.47
1
4280.55
1
4309.52
1
4167.7
1
4227.65
1
4369.01
1
4340.32
1
4380.49
1
4422.66
1
4363.57
1
4362.59
1
4390.09
1
4329.79
1
4410.94
1
4549.55
1
4399.61
1
4369.31
1
4567.4
1
4575.45
1
4507.44
1
4493.8
1
4565.82
1
4558.76
1
4621.28
1
4505.36
1
4421.7
1
4583.64
1
4537.69
1
4509.86
1
4650.13
1
4655.59
1
4632.15
1
4536.95
1
4687.11
1
4749.65
1
4688.39
1
4772.34
1
4723.26
1
4712.16
1
4800.39
1
4816.63
1
4821.98
1
4870.08
1
4778.69
1
4675.3
1
4606.96
1
4720.45
1
4684.16
1
4713.87
1
4718.92
1
4635.18
1
4581.7
1
4694.8
1
4545.72
1
4715.84
1
4628.11
1
4809.76
1
4851.21
1
4706.59
1
4646.15
1
4682.58
1
4800.33
1
4886.34
1
4726.91
1
4747.26
1
4740.89
1
4805.33
1
4888.7
1
4894.07
1
4856.88
1
4864.92
1
4902.3
1
4797.85
1
4880.27
1
4888.86
1
4909.3
1
4975.79
1
4962.28
1
5002.88
1
5080.12
1
5028.87
1
4948.31
1
5066.17
1
5045.81
1
5126.84
1
5027
1
5080.17
1
5046.21
1
5011.39
1
4974.42
1
4992.38
1
5049.88
1
5029.41
1
4997.7
1
5111.44
1
5052.57
1
5090.83
1
5047.5
1
5085.62
1
5156.7
1
5090.73
1
5102.94
1
5106.83
1
5104.82
1
5205.4
1
5188.02
1
5088.43
1
5280.8
1
5217.14
1
5201.42
1
5079.83
1
5140.19
1
5263.47
1
5270.03
1
5310.72
1
5277.1
1
5366.3
1
5330.05
1
5210.57
1
5341.29
1
5394.94
1
5358.96
1
5289.19
1
5385.42
1
5477.88
1
5568.15
1
5469.64
1
5372.05
1
5378.97
1
5514.36
1
5367.06
1
5395.2
1
5385.98
1
5542.82
1
5467.34
1
5493.31
1
5553.29
1
5496.1
1
5581.89
1
5573.07
1
5609.8
1
5548.21
1
5575.75
1
5553.07
1
5689.44
1
5718.66
1
5743.58
1
5660.11
1
5642.3
1
5691.05
1
5768.81
1
5655.86
1
5722.72
1
5671.32
1
5795.97
1
5722.38
1
5763.24
1
5790.63
1
5707.95
1
5739.68
1
5598.55
1
5798.46
1
5862.32
1
5888.43
1
5846.12
1
5891.58
1
5877.16
1
5784.32
1
5916.78
1
5841.92
1
5832.2
1
5926.65
1
6003.69
1
5874.13
1
5929.27
1
5875.7
1
5963.76
1
5887.11
1
5938.92
1
5932.3
1
5947.82
1
5993.58
1
5989.48
1
5933.07
1
6090.74
1
6086.34
1
5982.53
1
5950.17
1
6113.59
1
6164.98
1
6116.2
1
6182.11
1
5991.14
1
6110.08
1
6118.62
1
6147.39
1
5983.74
1
6119.02
1
6053.37
1
6247.65
1
6285.16
1
6192.18
1
6341.87
1
6242.18
1
6329.6
1
6227.72
1
6281.42
1
6232.28
1
6265.65
1
6273.81
1
6285.97
1
6364.36
1
6444.66
1
6484.83
1
6441.57
1
6287.52
1
6277.73
1
6371.03
1
6541.09
1
6432.04
1
6471.27
1
6475.63
1
6399.81
1
6477.93
1
6487.09
1
6432.83
1
6505.29
1
6574.27
1
6568.86
1
6690.03
1
6680.64
1
6591.43
1
6573.4
1
6680.27
1
6547.71
1
6564.24
1
6594.45
1
6648.51
1
6672.66
1
6765.12
1
6661.59
1
6732.26
1
6741.54
1
6809.4
1
6639.67
1
6672.55
1
6774.15
1
6826.28
1
6903.99
1
6851.23
1
6897.13
1
6876.36
1
6796.87
1
7000.44
1
6906.84
1
6828.59
1
6887.77
1
6940.91
1
6979.07
1
6869.2
1
6843.38
1
6927.22
1
6989.9
1
6866.9
1
6913.53
1
7021.3
1
6978.2
1
6894.21
1
7028.59
1
7029.26
1
7108.02
1
6990.31
1
7062.55
1
7011.9
1
7069.01
1
7131.52
1
7069.61
1
7130.96
1
7102.91
1
7228.28
1
7367.49
1
7351.17
1
7152.34
1
7195.77
1
7319.71
1
7303.06
1
7228.26
1
7297.62
1
7343.52
1
7288.88
1
7424.68
1
7369.32
1
7345.53
1
7227.52
1
7286.61
1
7472.45
1
7466.72
1
7503.56
1
7553.85
1
7353.92
1
7405.42
1
7599.87
1
7617.88
1
7422.67
1
7448.63
1
7282.62
1
7481.43
1
7499.64
1
7482.26
1
7576.93
1
7562.85
1
7604.65
1
7608.92
1
7468.48
1
7683.02
1
7640.36
1
7755.58
1
7700.11
1
7787.86
1
7837.62
1
7960.96
1
7785.21
1
7669.06
1
7717.56
1
7687.76
1
7852.38
1
7686.69
1
7728.56
1
7873
1
7724.91
1
7799.51
1
7866.23
1
7850.75
1
7784.93
1
7983.19
1
7967.9
1
8013.84
1
8151.16
1
7941.31
1
7988.88
1
7996.66
1
7867.42
1
7992.9
1
8002.27
1
8088.11
1
7953.86
1
7975.12
1
7961.43
1
7937.31
1
8013.43
1
7960.74
1
8159.18
1
8039.12
1
7987.56
1
7965.28
1
8113.71
1
8146.1
1
8311.18
1
8381.49
1
8193.6
1
8243.61
1
8350.19
1
8316.14
1
8166.1
1
8335.5
1
8295.66
1
8211.51
1
8217.04
1
8142.41
1
8231.32
1
8204.86
1
8307.22
1
8210.48
1
8337.38
1
8317.2
1
8480.55
1
8400.62
1
8415.2
1
8394.67
1
8561.58
1
8587.75
1
8274.71
1
8463.51
1
8502.83
1
8449.78
1
8478.97
1
8613.94
1
8555.21
1
8591.55
1
8679.06
1
8717.91
1
8663.63
1
8722.89
1
8716.77
1
8577.78
1
8629.73
1
8702.13
1
8768.8
1
8758
1
8770.86
1
8865.94
1
8969.02
1
8878.22
1
8824.03
1
8745.73
1
8821.14
1
8918.48
1
8777.06
1
8943.61
1
8948.5
1
8837.38
1
8888.36
1
8982.06
1
9012.92
1
8997.85
1
9098.02
1
9018.64
1
8918.84
1
9075.89
1
9105.21
1
9261.77
1
9250.73
1
9138.44
1
9206.52
1
9246.02
1
9337.96
1
9460.29
1
9396.67
1
9436.16
1
9383.89
1
9381.72
1
9310.58
1
9403.96
1
9438.41
1
9329.45
1
9235.39
1
9319.8
1
9564.12
1
9663.81
1
9445.21
1
9674.8
1
9579.09
1
9569.86
1
9610.28
1
9723.24
1
9731.7
1
9707.69
1
9730.26
1
9862.8
1
9757.33
1
9810.38
1
9799.22
1
9895.04
1
10026.7
1
9843.43
1
9896.21
1
10006.3
1
9880.82
1
10023.5
1
10171.9
1
10041.8
1
9976.22
1
10199.6
1
10135.9
1
10197.5
1
10298
1
10130.5
1
10094.4
1
9991.83
1
10122.6
1
10104.4
1
10095.2
1
10108.9
1
10269.1
1
10404.2
1
10456.8
1
10406.7
1
10511.6
1
10601
1
10730.4
1
10735.5
1
10853.3
1
10694.1
1
10856.8
1
10957.7
1
10915.3
1
10665.4
1
10578
1
10598.9
1
10352.4
1
10342.1
1
10365.3
1
10731.3
1
10764.6
1
10651.5
1
10649
1
10925
1
10773.5
1
10863.1
1
10812.3
1
10757.3
1
10813.3
1
10726.6
1
10839.6
1
10658.8
1
10620.3
1
10778.1
1
10836.2
1
10800.5
1
10919.4
1
10902.4
1
11092.9
1
11150.6
1
11115.2
1
10959.5
1
10991.5
1
11064.4
1
11032.2
1
11167.8
1
11238
1
11029.6
1
10884.1
1
10972.9
1
11102.7
1
11297.1
1
11336.1
1
11250.4
1
11129.4
1
11196.2
1
11299.9
1
11331.8
1
11404.1
1
11328.2
1
11488.8
1
11454.3
1
11654.6
1
11535.9
1
11495.3
1
11525.7
1
11664.9
1
11564.4
1
11527
1
11408
1
11688.7
1
11634.5
1
11551.7
1
11693.6
1
11660.4
1
11707.3
1
11776.9
1
11577
1
11531.1
1
11415.4
1
11324.6
1
11321.5
1
11599.6
1
11567.3
1
11616
1
11461.9
1
11295.9
1
11053.1
1
10788.1
1
10760.4
1
10549.4
1
10493.2
1
10463.4
1
10506
1
10386.7
1
10279.7
1
10493.1
1
10588.6
1
10654.4
1
10606.1
1
10625.8
1
10644.3
1
10571.2
1
10580.7
1
10577.4
1
10539.9
1
10658.1
1
10661.3
1
10766.7
1
10682
1
10924.1
1
11041.3
1
10873.8
1
11027.2
1
10806.4
1
10405.5
1
10669.8
1
10481.8
1
10690.7
1
10647.8
1
10340.2
1
10336.8
1
10368.5
1
10312.3
1
10073.2
1
10323.4
1
10279.2
1
10297.3
1
10155
1
10456
1
10559.7
1
10431.4
1
10467.1
1
10375.9
1
10541.6
1
10708.5
1
10825.3
1
10718.3
1
10581
1
10767.5
1
10757.5
1
10692.1
1
10630.9
1
10690.6
1
10866.8
1
10895.4
1
11056.4
1
11101.2
1
10971.4
1
11016
1
11329.2
1
11232.3
1
11526.3
1
11486.1
1
11315.2
1
11272.8
1
11290.2
1
11279
1
11154.3
1
11216.9
1
11098.2
1
11189.2
1
11298.7
1
11300.6
1
11358.5
1
11465.4
1
11475.7
1
11587.4
1
11935.1
1
12105.5
1
12213.4
1
12466
1
12412.6
1
12044
1
11342.2
1
11051.7
1
10377.4
1
10199.9
1
10274.2
1
10478.1
1
10798.3
1
11072
1
11335.9
1
11245.3
1
10865.4
1
10397.7
1
10126.3
1
9864.14
1
9683.05
1
9491.15
1
9321.65
1
9245.98
1
9141.08
1
8986.45
1
8767.49
1
8944.87
1
8924.8
1
8737.32
1
8839.68
1
8972.84
1
9067.22
1
8978.14
1
9087.73
1
9252.57
1
9372.26
1
9590.07
1
9968.81
1
9960.14
1
10050.1
1
9785.27
1
9173.72
1
8958.97
1
8895.97
1
8886.99
1
8996.9
1
8911.87
1
8972.91
1
8948.29
1
8876.17
1
8850.19
1
8690.24
1
8538.72
1
8521.15
1
8488.14
1
8580.96
1
8584.01
1
8592.71
1
8666.44
1
8563.14
1
8593.79
1
8748.45
1
8767.08
1
8764.87
1
8891.2
1
8947.44
1
8954.2
1
8794.67
1
8805.86
1
8909.21
1
8931.65
1
8883.39
1
9139.23
1
9154.12
1
9237.55
1
9229.13
1
9146.91
1
9411.21
1
9174.16
1
9162.78
1
9155.13
1
8975.35
1
8963.66
1
9282.49
1
9444.17
1
9513.04
1
9576.53
1
9870.63
1
10208.5
1
10389.5
1
10320.4
1
10151.7
1
10487.7
1
10542.8
1
10636.9
1
10487.7
1
10406.1
1
10045.3
1
9583.85
1
9404.71
1
9174.79
1
8945.61
1
8859.55
1
8583.4
1
8787.35
1
8900.9
1
9099.97
1
9077.09
1
9644.88
1
10176.2
1
11432.6
1
13586
1
15601.1
1
14470.7
1
11853.2
1
10070.1
1
9415.18
1
8592.15
1
7424.37
1
6094.77
1
5480.71
1
5143.36
1
5027.33
1
4942.48
1
5131.93
1
5059.32
1
5192.93
1
5217.92
1
5497.45
1
5569.02
1
5574.96
1
5385.59
1
5227.88
1
5057.03
1
4870.49
1
4778.98
1
4885.45
1
4667.66
1
4539.56
1
4546.17
1
4566.04
1
4649.67
1
4815.84
1
4924.94
1
5142.71
1
5332.67
1
6197.79
1
7596.03
1
8234.41
1
7259.83
1
5914.58
1
4852.09
1
4300.38
1
3826.81
1
3313.36
1
2862.72
1
2885.97
1
2665.47
1
2602.28
1
2643.32
1
2626.22
1
2757.84
1
2865.44
1
2861.43
1
2757.13
1
2893.3
1
3104.78
1
3278.88
1
3502
1
3382.37
1
3045.68
1
2569.37
1
2323.51
1
2377.37
1
2288.33
1
2285.93
1
2218.09
1
2224.04
1
2206.59
1
2208.88
1
2183.4
1
2133.2
1
2203.84
1
2204.54
1
2246.28
1
2317.43
1
2311
1
2327.09
1
2276.26
1
2333.72
1
2259.69
1
2278.5
1
2370.34
1
2374.78
1
2381.1
1
2423
1
2359.01
1
2365.47
1
2460.49
1
2440.34
1
2367.36
1
2310.56
1
2252.52
1
2372.2
1
2389.12
1
2466.91
1
2478
1
2460.27
1
2529.7
1
2602.36
1
2731.61
1
2661
1
2701.89
1
2651.49
1
2527.5
1
2500.95
1
2371.73
1
2249.96
1
2180.36
1
2054.92
1
2052.78
1
1969.13
1
1991.13
1
2066.37
1
2172.89
1
2358.11
1
2600.32
1
3061.04
1
3238.05
1
3041.11
1
2833.17
1
3099.88
1
3655.4
1
3469.49
1
2680.33
1
1703.02
1
1204.53
1
973.101
1
845.371
1
820.61
1
753.454
1
745.603
1
725.926
1
713.782
1
694.86
1
688.277
1
671.256
1
681.493
1
699.729
1
627.432
1
715.294
1
775.417
1
722.82
1
732.397
1
732.822
1
668.165
1
689.531
1
698.63
1
707.57
1
734.693
1
723.696
1
682.708
1
704.812
1
679.726
1
712.179
1
725.445
1
700.776
1
713.276
1
742.991
1
720.669
1
734.409
1
809.101
1
752.3
1
786.455
1
759.27
1
723.035
1
769.573
1
796.419
1
800.079
1
778.035
1
796.093
1
829.878
1
829.878
1
772.326
1
755.119
1
808.283
1
802.728
1
817.298
1
836.207
1
841.312
1
794.064
1
883.253
1
808.316
1
847.86
1
860.247
1
907.848
1
904.293
1
865.661
1
830.323
1
828.868
1
828.68
1
811.321
1
827.732
1
844.566
1
832.841
1
894.041
1
873.852
1
895.007
1
941.462
1
962.089
1
992.359
1
1092.26
1
1220.84
1
1186.48
1
1156.13
1
1044.74
1
946.506
1
830.319
1
754.622
1
659.49
1
660.618
1
691.608
1
667.726
1
684.116
1
692.239
1
717.272
1
774.715
1
794.397
1
899.4
1
1097.59
1
1648.78
1
2930.12
1
2989.74
1
1583.46
1
539.043
1
231.867
1
183.522
1
164.037
1
134.26
1
125.596
1
126.255
1
131.361
1
132.077
1
137.533
1
155.594
1
150.566
1
143.484
1
157.931
1
155.034
1
154.863
1
139.77
1
158.789
1
150.893
1
123.785
1
115.678
1
117.083
1
119.343
1
137.872
1
133.065
1
149.019
1
127.142
1
152.956
1
151.396
1
153.331
1
144.868
1
131.086
1
101.918
1
104.191
1
138.416
1
152.842
1
173.778
1
175.328
1
134.287
1
61.43
1
20.2715
1
4.97921
1
2.33141
1
1.44408
1
1.27959
1
0
1
end of experiment
